# 20240210
# Chip 11
# Center frequency: 1.5 GHz
# Span: 3 GHz
# Resolution bandwidth: 100 kHz
# Video bandwidth: 100 kHz
# Reference level: 0 dBm

Frequency [Hz],Power [dBm]
0,-74.390
7500000,-74.795
15000000,-75.342
22500000,-74.734
30000000,-75.386
37500000,-75.402
45000000,-75.450
52500000,-75.400
60000000,-74.655
67500000,-75.276
75000000,-74.863
82500000,-75.597
90000000,-75.522
97500000,-75.261
105000000,-74.872
112500000,-75.580
120000000,-73.711
127500000,-72.716
135000000,-71.745
142500000,-74.540
150000000,-74.966
157500000,-72.879
165000000,-74.881
172500000,-75.042
180000000,-74.305
187500000,-75.006
195000000,-74.836
202500000,-74.186
210000000,-74.546
217500000,-75.329
225000000,-74.426
232500000,-74.391
240000000,-74.279
247500000,-74.642
255000000,-74.452
262500000,-74.681
270000000,-74.456
277500000,-73.069
285000000,-74.318
292500000,-74.104
300000000,-74.015
307500000,-72.709
315000000,-73.769
322500000,-74.491
330000000,-73.133
337500000,-73.346
345000000,-73.626
352500000,-73.877
360000000,-74.449
367500000,-73.718
375000000,-74.125
382500000,-73.372
390000000,-74.199
397500000,-73.297
405000000,-72.211
412500000,-73.220
420000000,-70.390
427500000,-72.557
435000000,-71.744
442500000,-68.737
450000000,-68.267
457500000,-64.887
465000000,-48.013
472500000,-51.848
480000000,-62.861
487500000,-69.832
495000000,-69.543
502500000,-72.586
510000000,-71.364
517500000,-67.270
525000000,-71.013
532500000,-72.434
540000000,-73.007
547500000,-72.991
555000000,-73.594
562500000,-72.677
570000000,-72.148
577500000,-72.963
585000000,-72.707
592500000,-72.546
600000000,-69.837
607500000,-72.758
615000000,-73.731
622500000,-72.885
630000000,-72.863
637500000,-73.313
645000000,-72.866
652500000,-73.275
660000000,-73.629
667500000,-74.186
675000000,-74.671
682500000,-73.711
690000000,-74.233
697500000,-73.347
705000000,-72.924
712500000,-73.539
720000000,-73.545
727500000,-74.055
735000000,-73.567
742500000,-73.323
750000000,-73.192
757500000,-73.013
765000000,-73.889
772500000,-72.759
780000000,-71.336
787500000,-72.230
795000000,-73.847
802500000,-72.242
810000000,-69.925
817500000,-72.561
825000000,-73.275
832500000,-73.726
840000000,-73.457
847500000,-74.133
855000000,-73.466
862500000,-73.583
870000000,-73.031
877500000,-73.130
885000000,-72.388
892500000,-70.193
900000000,-71.908
907500000,-72.359
915000000,-71.652
922500000,-67.428
930000000,-67.361
937500000,-48.175
945000000,-54.678
952500000,-65.260
960000000,-71.464
967500000,-69.722
975000000,-73.597
982500000,-73.137
990000000,-71.112
997500000,-73.128
1005000000,-73.918
1012500000,-73.780
1020000000,-74.542
1027500000,-74.413
1035000000,-73.632
1042500000,-73.461
1050000000,-74.216
1057500000,-72.448
1065000000,-71.399
1072500000,-71.472
1080000000,-73.031
1087500000,-72.388
1095000000,-72.688
1102500000,-73.178
1110000000,-73.057
1117500000,-73.149
1125000000,-73.866
1132500000,-73.704
1140000000,-74.608
1147500000,-73.745
1155000000,-73.765
1162500000,-74.549
1170000000,-74.617
1177500000,-73.723
1185000000,-74.458
1192500000,-74.155
1200000000,-74.407
1207500000,-73.384
1215000000,-74.848
1222500000,-73.557
1230000000,-74.250
1237500000,-73.799
1245000000,-74.551
1252500000,-72.609
1260000000,-73.880
1267500000,-74.460
1275000000,-73.430
1282500000,-72.395
1290000000,-74.001
1297500000,-73.337
1305000000,-74.289
1312500000,-75.069
1320000000,-74.298
1327500000,-74.338
1335000000,-73.813
1342500000,-74.025
1350000000,-73.731
1357500000,-74.102
1365000000,-73.593
1372500000,-74.145
1380000000,-73.922
1387500000,-72.985
1395000000,-71.819
1402500000,-69.858
1410000000,-57.097
1417500000,-64.740
1425000000,-71.072
1432500000,-73.242
1440000000,-73.210
1447500000,-73.007
1455000000,-73.820
1462500000,-73.646
1470000000,-74.114
1477500000,-73.352
1485000000,-73.524
1492500000,-73.206
1500000000,-73.563
1507500000,-73.953
1515000000,-73.266
1522500000,-74.620
1530000000,-74.109
1537500000,-72.948
1545000000,-72.527
1552500000,-73.161
1560000000,-72.032
1567500000,-73.314
1575000000,-73.261
1582500000,-72.200
1590000000,-74.010
1597500000,-73.761
1605000000,-73.515
1612500000,-73.926
1620000000,-73.615
1627500000,-73.938
1635000000,-73.811
1642500000,-74.183
1650000000,-73.978
1657500000,-73.206
1665000000,-73.235
1672500000,-73.392
1680000000,-73.776
1687500000,-73.330
1695000000,-73.705
1702500000,-73.208
1710000000,-73.934
1717500000,-71.925
1725000000,-71.441
1732500000,-72.851
1740000000,-73.918
1747500000,-71.788
1755000000,-72.213
1762500000,-73.636
1770000000,-72.929
1777500000,-73.300
1785000000,-73.879
1792500000,-72.604
1800000000,-73.318
1807500000,-72.936
1815000000,-73.592
1822500000,-73.118
1830000000,-72.249
1837500000,-71.852
1845000000,-72.776
1852500000,-72.225
1860000000,-71.223
1867500000,-68.406
1875000000,-63.138
1882500000,-56.554
1890000000,-60.918
1897500000,-66.333
1905000000,-70.835
1912500000,-71.609
1920000000,-71.904
1927500000,-72.440
1935000000,-70.872
1942500000,-72.629
1950000000,-72.987
1957500000,-72.792
1965000000,-73.225
1972500000,-73.195
1980000000,-72.986
1987500000,-72.889
1995000000,-73.118
2002500000,-72.656
2010000000,-72.281
2017500000,-71.864
2025000000,-73.108
2032500000,-73.123
2040000000,-72.040
2047500000,-72.888
2055000000,-73.296
2062500000,-73.493
2070000000,-73.665
2077500000,-73.941
2085000000,-73.201
2092500000,-73.463
2100000000,-73.479
2107500000,-73.315
2115000000,-73.115
2122500000,-73.083
2130000000,-73.225
2137500000,-73.765
2145000000,-74.082
2152500000,-73.883
2160000000,-74.036
2167500000,-72.726
2175000000,-73.250
2182500000,-72.733
2190000000,-72.797
2197500000,-70.949
2205000000,-73.481
2212500000,-73.037
2220000000,-72.270
2227500000,-72.332
2235000000,-73.032
2242500000,-73.791
2250000000,-73.161
2257500000,-73.866
2265000000,-73.384
2272500000,-72.969
2280000000,-73.647
2287500000,-72.722
2295000000,-72.268
2302500000,-71.865
2310000000,-72.398
2317500000,-73.013
2325000000,-72.787
2332500000,-71.760
2340000000,-67.500
2347500000,-63.209
2355000000,-58.347
2362500000,-64.234
2370000000,-69.331
2377500000,-69.949
2385000000,-72.078
2392500000,-72.467
2400000000,-71.796
2407500000,-71.692
2415000000,-72.406
2422500000,-72.060
2430000000,-72.862
2437500000,-72.990
2445000000,-72.612
2452500000,-73.011
2460000000,-73.369
2467500000,-71.987
2475000000,-72.106
2482500000,-69.784
2490000000,-69.871
2497500000,-71.547
2505000000,-72.078
2512500000,-72.183
2520000000,-72.101
2527500000,-72.354
2535000000,-72.499
2542500000,-72.912
2550000000,-72.747
2557500000,-72.871
2565000000,-72.867
2572500000,-72.500
2580000000,-73.227
2587500000,-73.346
2595000000,-73.175
2602500000,-72.802
2610000000,-73.182
2617500000,-72.745
2625000000,-72.958
2632500000,-72.444
2640000000,-72.595
2647500000,-72.760
2655000000,-73.574
2662500000,-72.706
2670000000,-71.628
2677500000,-72.106
2685000000,-72.128
2692500000,-71.453
2700000000,-72.411
2707500000,-73.011
2715000000,-72.776
2722500000,-72.482
2730000000,-73.176
2737500000,-72.681
2745000000,-72.525
2752500000,-72.257
2760000000,-73.103
2767500000,-72.219
2775000000,-72.131
2782500000,-72.026
2790000000,-71.709
2797500000,-71.540
2805000000,-71.454
2812500000,-71.308
2820000000,-67.154
2827500000,-66.452
2835000000,-70.408
2842500000,-71.676
2850000000,-71.442
2857500000,-71.989
2865000000,-72.173
2872500000,-71.378
2880000000,-71.767
2887500000,-71.732
2895000000,-72.843
2902500000,-72.121
2910000000,-71.430
2917500000,-71.600
2925000000,-71.618
2932500000,-71.212
2940000000,-70.966
2947500000,-70.964
2955000000,-71.534
2962500000,-71.944
2970000000,-72.128
2977500000,-71.215
2985000000,-71.721
2992500000,-71.776
3000000000,-71.370
