# 20240210
# Chip 11
# Center frequency: 1.665 GHz
# Span: 1 GHz
# Resolution bandwidth: 10 kHz
# Video bandwidth: 10 kHz
# Reference level: 0 dBm
# VCO coarse DAC: 400
# IREF = 0.76 uA

Frequency [Hz],Power [dBm]
1165000000,-81.698
1167500000,-81.645
1170000000,-81.490
1172500000,-81.498
1175000000,-81.579
1177500000,-77.472
1180000000,-80.713
1182500000,-77.330
1185000000,-79.821
1187500000,-80.139
1190000000,-78.157
1192500000,-78.404
1195000000,-78.776
1197500000,-80.339
1200000000,-78.914
1202500000,-80.886
1205000000,-81.680
1207500000,-81.825
1210000000,-81.911
1212500000,-79.636
1215000000,-82.187
1217500000,-81.587
1220000000,-81.659
1222500000,-81.378
1225000000,-81.934
1227500000,-81.933
1230000000,-81.144
1232500000,-79.926
1235000000,-79.369
1237500000,-82.023
1240000000,-77.583
1242500000,-80.305
1245000000,-79.665
1247500000,-80.239
1250000000,-79.934
1252500000,-79.216
1255000000,-79.581
1257500000,-78.506
1260000000,-78.543
1262500000,-78.774
1265000000,-77.589
1267500000,-77.557
1270000000,-76.865
1272500000,-78.443
1275000000,-80.903
1277500000,-80.673
1280000000,-80.124
1282500000,-79.561
1285000000,-81.547
1287500000,-81.354
1290000000,-81.143
1292500000,-81.009
1295000000,-81.672
1297500000,-80.599
1300000000,-81.482
1302500000,-81.413
1305000000,-79.926
1307500000,-79.649
1310000000,-78.035
1312500000,-79.307
1315000000,-78.736
1317500000,-78.311
1320000000,-76.855
1322500000,-76.338
1325000000,-76.554
1327500000,-75.162
1330000000,-77.164
1332500000,-75.210
1335000000,-78.823
1337500000,-77.976
1340000000,-80.497
1342500000,-78.478
1345000000,-80.362
1347500000,-80.227
1350000000,-79.324
1352500000,-80.665
1355000000,-81.250
1357500000,-79.874
1360000000,-78.473
1362500000,-81.505
1365000000,-80.617
1367500000,-79.840
1370000000,-78.197
1372500000,-77.804
1375000000,-78.104
1377500000,-78.490
1380000000,-79.103
1382500000,-77.595
1385000000,-76.081
1387500000,-76.372
1390000000,-76.127
1392500000,-75.987
1395000000,-80.142
1397500000,-78.656
1400000000,-77.267
1402500000,-78.630
1405000000,-79.566
1407500000,-80.773
1410000000,-80.892
1412500000,-78.848
1415000000,-80.926
1417500000,-80.281
1420000000,-80.187
1422500000,-79.436
1425000000,-75.958
1427500000,-76.834
1430000000,-79.262
1432500000,-76.406
1435000000,-79.353
1437500000,-76.502
1440000000,-77.386
1442500000,-76.081
1445000000,-79.764
1447500000,-78.499
1450000000,-78.552
1452500000,-73.318
1455000000,-79.734
1457500000,-80.024
1460000000,-80.624
1462500000,-80.803
1465000000,-80.856
1467500000,-81.340
1470000000,-81.196
1472500000,-81.174
1475000000,-80.826
1477500000,-81.376
1480000000,-80.220
1482500000,-81.209
1485000000,-80.468
1487500000,-80.151
1490000000,-79.563
1492500000,-79.747
1495000000,-79.311
1497500000,-76.241
1500000000,-80.973
1502500000,-79.587
1505000000,-76.531
1507500000,-72.631
1510000000,-74.828
1512500000,-73.357
1515000000,-71.706
1517500000,-72.134
1520000000,-70.139
1522500000,-72.044
1525000000,-73.013
1527500000,-72.168
1530000000,-78.732
1532500000,-72.665
1535000000,-72.506
1537500000,-72.491
1540000000,-76.189
1542500000,-72.771
1545000000,-75.957
1547500000,-70.613
1550000000,-70.188
1552500000,-71.308
1555000000,-74.033
1557500000,-72.253
1560000000,-79.806
1562500000,-75.143
1565000000,-77.230
1567500000,-80.562
1570000000,-79.728
1572500000,-81.516
1575000000,-80.567
1577500000,-80.560
1580000000,-79.791
1582500000,-78.000
1585000000,-81.459
1587500000,-80.647
1590000000,-80.507
1592500000,-80.254
1595000000,-81.200
1597500000,-80.987
1600000000,-77.550
1602500000,-80.344
1605000000,-81.130
1607500000,-81.481
1610000000,-81.360
1612500000,-80.625
1615000000,-77.243
1617500000,-79.332
1620000000,-81.237
1622500000,-80.962
1625000000,-79.095
1627500000,-78.862
1630000000,-77.278
1632500000,-76.618
1635000000,-76.057
1637500000,-77.411
1640000000,-76.147
1642500000,-70.685
1645000000,-72.053
1647500000,-72.265
1650000000,-64.731
1652500000,-65.127
1655000000,-61.680
1657500000,-57.768
1660000000,-51.979
1662500000,-40.545
1665000000,-33.275
1667500000,-38.663
1670000000,-51.748
1672500000,-55.919
1675000000,-57.009
1677500000,-59.240
1680000000,-62.268
1682500000,-68.458
1685000000,-69.744
1687500000,-70.783
1690000000,-71.621
1692500000,-74.818
1695000000,-73.035
1697500000,-75.222
1700000000,-71.048
1702500000,-74.474
1705000000,-71.782
1707500000,-72.964
1710000000,-71.427
1712500000,-70.108
1715000000,-69.137
1717500000,-74.288
1720000000,-73.987
1722500000,-74.974
1725000000,-72.984
1727500000,-75.861
1730000000,-76.620
1732500000,-75.698
1735000000,-78.517
1737500000,-79.864
1740000000,-78.037
1742500000,-78.160
1745000000,-78.502
1747500000,-78.217
1750000000,-76.272
1752500000,-78.150
1755000000,-78.145
1757500000,-72.517
1760000000,-76.301
1762500000,-76.786
1765000000,-77.759
1767500000,-77.730
1770000000,-72.451
1772500000,-72.701
1775000000,-73.241
1777500000,-73.740
1780000000,-70.764
1782500000,-72.140
1785000000,-75.744
1787500000,-79.357
1790000000,-76.008
1792500000,-78.437
1795000000,-78.907
1797500000,-75.160
1800000000,-76.128
1802500000,-74.174
1805000000,-70.887
1807500000,-72.272
1810000000,-72.805
1812500000,-75.116
1815000000,-73.090
1817500000,-75.576
1820000000,-72.594
1822500000,-78.196
1825000000,-76.846
1827500000,-73.225
1830000000,-75.812
1832500000,-74.550
1835000000,-75.685
1837500000,-74.733
1840000000,-75.474
1842500000,-72.726
1845000000,-70.077
1847500000,-69.010
1850000000,-73.089
1852500000,-74.790
1855000000,-71.542
1857500000,-73.387
1860000000,-73.541
1862500000,-73.073
1865000000,-75.818
1867500000,-76.020
1870000000,-78.310
1872500000,-72.878
1875000000,-75.517
1877500000,-78.031
1880000000,-72.093
1882500000,-68.560
1885000000,-76.080
1887500000,-75.631
1890000000,-74.710
1892500000,-70.462
1895000000,-73.235
1897500000,-70.077
1900000000,-69.358
1902500000,-68.819
1905000000,-69.126
1907500000,-67.438
1910000000,-66.718
1912500000,-71.187
1915000000,-75.164
1917500000,-74.783
1920000000,-74.641
1922500000,-66.315
1925000000,-67.257
1927500000,-72.559
1930000000,-72.406
1932500000,-67.915
1935000000,-73.370
1937500000,-75.226
1940000000,-74.879
1942500000,-76.479
1945000000,-72.884
1947500000,-72.819
1950000000,-72.913
1952500000,-73.963
1955000000,-70.070
1957500000,-71.693
1960000000,-78.022
1962500000,-74.444
1965000000,-76.196
1967500000,-77.118
1970000000,-78.328
1972500000,-79.858
1975000000,-73.977
1977500000,-79.277
1980000000,-77.751
1982500000,-77.078
1985000000,-80.376
1987500000,-79.352
1990000000,-80.659
1992500000,-80.448
1995000000,-78.395
1997500000,-78.115
2000000000,-79.664
2002500000,-78.104
2005000000,-79.421
2007500000,-79.490
2010000000,-79.034
2012500000,-80.315
2015000000,-81.003
2017500000,-80.599
2020000000,-80.859
2022500000,-80.944
2025000000,-81.613
2027500000,-80.735
2030000000,-80.474
2032500000,-81.069
2035000000,-81.210
2037500000,-80.810
2040000000,-81.290
2042500000,-81.151
2045000000,-79.480
2047500000,-79.559
2050000000,-80.677
2052500000,-80.753
2055000000,-80.395
2057500000,-78.219
2060000000,-81.079
2062500000,-80.615
2065000000,-79.166
2067500000,-80.929
2070000000,-80.332
2072500000,-80.871
2075000000,-79.672
2077500000,-78.578
2080000000,-80.869
2082500000,-81.290
2085000000,-80.313
2087500000,-79.360
2090000000,-79.730
2092500000,-81.487
2095000000,-81.198
2097500000,-79.854
2100000000,-81.261
2102500000,-81.119
2105000000,-81.127
2107500000,-81.044
2110000000,-80.792
2112500000,-80.723
2115000000,-80.917
2117500000,-80.104
2120000000,-81.175
2122500000,-81.054
2125000000,-80.832
2127500000,-80.151
2130000000,-80.487
2132500000,-81.161
2135000000,-79.334
2137500000,-78.371
2140000000,-80.414
2142500000,-81.161
2145000000,-81.367
2147500000,-81.373
2150000000,-81.039
2152500000,-81.633
2155000000,-81.312
2157500000,-81.290
2160000000,-81.431
2162500000,-81.148
2165000000,-81.375
